#                                                           
#  __  __   ________   ___ __ __    _______   ______        
# /_/\/_/\ /_______/\ /__//_//_/\ /_______/\ /_____/\       
# \ \ \ \ \\::: _  \ \\::\| \| \ \\::: _  \ \\:::_ \ \      
#  \:\_\ \ \\::(_)  \ \\:.      \ \\::(_)  \/_\:\ \ \ \     
#   \::::_\/ \:: __  \ \\:.\-/\  \ \\::  _  \ \\:\ \ \ \    
#     \::\ \  \:.\ \  \ \\. \  \  \ \\::(_)  \ \\:\_\ \ \   
#      \__\/   \__\/\__\/ \__\/ \__\/ \_______\/ \_____\/   
#                                                           
#                                                           
#       Version 4.4.0 Revision 16919 Hash 5175bb50d         
#                        MPI Build                          
#                http://www.yambo-code.org                  
#
# Absorption @ Q(1) [q->0 direction] : 1.0000000  0.0000000  0.0000000
#
#
# - Energies      are Slater exchange(X)+Perdew & Zunger(C)
# - Wavefunctions are Slater exchange(X)+Perdew & Zunger(C)
#
# - The Green`s function is T-ordered -
# - Using the Length Gauge -
# - [r,Vnl] *is* included -
#
#    E/ev[1]       EPS-Im[2]     EPS-Re[3]
#
    4.0000       0.59713E-4     1.0030   
    4.0080       0.59909E-4     1.0030   
    4.0160       0.60107E-4     1.0030   
    4.0240       0.60306E-4     1.0030   
    4.0320       0.60507E-4     1.0030   
    4.0400       0.60708E-4     1.0030   
    4.0480       0.60911E-4     1.0030   
    4.0561       0.61115E-4     1.0030   
    4.0641       0.61320E-4     1.0030   
    4.0721       0.61527E-4     1.0030   
    4.0801       0.61735E-4     1.0030   
    4.0881       0.61944E-4     1.0030   
    4.0961       0.62154E-4     1.0031   
    4.1041       0.62366E-4     1.0031   
    4.1121       0.62579E-4     1.0031   
    4.1201       0.62794E-4     1.0031   
    4.1281       0.63009E-4     1.0031   
    4.1361       0.63226E-4     1.0031   
    4.1441       0.63445E-4     1.0031   
    4.1522       0.63665E-4     1.0031   
    4.1602       0.63886E-4     1.0031   
    4.1682       0.64108E-4     1.0031   
    4.1762       0.64332E-4     1.0031   
    4.1842       0.64558E-4     1.0031   
    4.1922       0.64784E-4     1.0031   
    4.2002       0.65013E-4     1.0031   
    4.2082       0.65242E-4     1.0031   
    4.2162       0.65473E-4     1.0031   
    4.2242       0.65706E-4     1.0031   
    4.2322       0.65940E-4     1.0031   
    4.2402       0.66176E-4     1.0031   
    4.2482       0.66413E-4     1.0031   
    4.2563       0.66651E-4     1.0031   
    4.2643       0.66892E-4     1.0031   
    4.2723       0.67133E-4     1.0031   
    4.2803       0.67376E-4     1.0031   
    4.2883       0.67621E-4     1.0032   
    4.2963       0.67868E-4     1.0032   
    4.3043       0.68116E-4     1.0032   
    4.3123       0.68365E-4     1.0032   
    4.3203       0.68616E-4     1.0032   
    4.3283       0.68869E-4     1.0032   
    4.3363       0.69124E-4     1.0032   
    4.3443       0.69380E-4     1.0032   
    4.3524       0.69637E-4     1.0032   
    4.3604       0.69897E-4     1.0032   
    4.3684       0.70158E-4     1.0032   
    4.3764       0.70421E-4     1.0032   
    4.3844       0.70686E-4     1.0032   
    4.3924       0.70952E-4     1.0032   
    4.4004       0.71220E-4     1.0032   
    4.4084       0.71490E-4     1.0032   
    4.4164       0.71762E-4     1.0032   
    4.4244       0.72035E-4     1.0032   
    4.4324       0.72311E-4     1.0032   
    4.4404       0.72588E-4     1.0032   
    4.4484       0.72867E-4     1.0032   
    4.4565       0.73148E-4     1.0033   
    4.4645       0.73430E-4     1.0033   
    4.4725       0.73715E-4     1.0033   
    4.4805       0.74002E-4     1.0033   
    4.4885       0.74290E-4     1.0033   
    4.4965       0.74580E-4     1.0033   
    4.5045       0.74873E-4     1.0033   
    4.5125       0.75167E-4     1.0033   
    4.5205       0.75464E-4     1.0033   
    4.5285       0.75762E-4     1.0033   
    4.5365       0.76062E-4     1.0033   
    4.5445       0.76365E-4     1.0033   
    4.5526       0.76670E-4     1.0033   
    4.5606       0.76976E-4     1.0033   
    4.5686       0.77285E-4     1.0033   
    4.5766       0.77596E-4     1.0033   
    4.5846       0.77909E-4     1.0033   
    4.5926       0.78224E-4     1.0033   
    4.6006       0.78541E-4     1.0033   
    4.6086       0.78861E-4     1.0033   
    4.6166       0.79183E-4     1.0034   
    4.6246       0.79507E-4     1.0034   
    4.6326       0.79833E-4     1.0034   
    4.6406       0.80162E-4     1.0034   
    4.6486       0.80493E-4     1.0034   
    4.6567       0.80826E-4     1.0034   
    4.6647       0.81161E-4     1.0034   
    4.6727       0.81499E-4     1.0034   
    4.6807       0.81840E-4     1.0034   
    4.6887       0.82182E-4     1.0034   
    4.6967       0.82527E-4     1.0034   
    4.7047       0.82875E-4     1.0034   
    4.7127       0.83225E-4     1.0034   
    4.7207       0.83578E-4     1.0034   
    4.7287       0.83933E-4     1.0034   
    4.7367       0.84290E-4     1.0034   
    4.7447       0.84651E-4     1.0034   
    4.7528       0.85013E-4     1.0035   
    4.7608       0.85379E-4     1.0035   
    4.7688       0.85747E-4     1.0035   
    4.7768       0.86118E-4     1.0035   
    4.7848       0.86491E-4     1.0035   
    4.7928       0.86867E-4     1.0035   
    4.8008       0.87246E-4     1.0035   
    4.8088       0.87628E-4     1.0035   
    4.8168       0.88012E-4     1.0035   
    4.8248       0.88400E-4     1.0035   
    4.8328       0.88790E-4     1.0035   
    4.8408       0.89183E-4     1.0035   
    4.8488       0.89579E-4     1.0035   
    4.8569       0.89978E-4     1.0035   
    4.8649       0.90379E-4     1.0035   
    4.8729       0.90784E-4     1.0035   
    4.8809       0.91192E-4     1.0035   
    4.8889       0.91603E-4     1.0036   
    4.8969       0.92017E-4     1.0036   
    4.9049       0.92434E-4     1.0036   
    4.9129       0.92854E-4     1.0036   
    4.9209       0.93278E-4     1.0036   
    4.9289       0.93704E-4     1.0036   
    4.9369       0.94134E-4     1.0036   
    4.9449       0.94567E-4     1.0036   
    4.9530       0.95003E-4     1.0036   
    4.9610       0.95443E-4     1.0036   
    4.9690       0.95886E-4     1.0036   
    4.9770       0.96333E-4     1.0036   
    4.9850       0.96783E-4     1.0036   
    4.9930       0.97236E-4     1.0036   
    5.0010       0.97693E-4     1.0036   
    5.0090       0.98153E-4     1.0037   
    5.0170       0.98617E-4     1.0037   
    5.0250       0.99085E-4     1.0037   
    5.0330       0.99556E-4     1.0037   
    5.0410       0.10003E-3     1.0037   
    5.0490       0.10051E-3     1.0037   
    5.0571       0.10099E-3     1.0037   
    5.0651       0.10148E-3     1.0037   
    5.0731       0.10197E-3     1.0037   
    5.0811       0.10246E-3     1.0037   
    5.0891       0.10296E-3     1.0037   
    5.0971       0.10346E-3     1.0037   
    5.1051       0.10397E-3     1.0037   
    5.1131       0.10448E-3     1.0038   
    5.1211       0.10499E-3     1.0038   
    5.1291       0.10551E-3     1.0038   
    5.1371       0.10603E-3     1.0038   
    5.1451       0.10656E-3     1.0038   
    5.1532       0.10709E-3     1.0038   
    5.1612       0.10762E-3     1.0038   
    5.1692       0.10816E-3     1.0038   
    5.1772       0.10871E-3     1.0038   
    5.1852       0.10926E-3     1.0038   
    5.1932       0.10981E-3     1.0038   
    5.2012       0.11036E-3     1.0038   
    5.2092       0.11093E-3     1.0038   
    5.2172       0.11149E-3     1.0039   
    5.2252       0.11206E-3     1.0039   
    5.2332       0.11264E-3     1.0039   
    5.2412       0.11322E-3     1.0039   
    5.2492       0.11381E-3     1.0039   
    5.2573       0.11440E-3     1.0039   
    5.2653       0.11499E-3     1.0039   
    5.2733       0.11559E-3     1.0039   
    5.2813       0.11620E-3     1.0039   
    5.2893       0.11681E-3     1.0039   
    5.2973       0.11742E-3     1.0039   
    5.3053       0.11805E-3     1.0039   
    5.3133       0.11867E-3     1.0040   
    5.3213       0.11930E-3     1.0040   
    5.3293       0.11994E-3     1.0040   
    5.3373       0.12058E-3     1.0040   
    5.3453       0.12123E-3     1.0040   
    5.3534       0.12189E-3     1.0040   
    5.3614       0.12254E-3     1.0040   
    5.3694       0.12321E-3     1.0040   
    5.3774       0.12388E-3     1.0040   
    5.3854       0.12456E-3     1.0040   
    5.3934       0.12524E-3     1.0040   
    5.4014       0.12593E-3     1.0041   
    5.4094       0.12662E-3     1.0041   
    5.4174       0.12732E-3     1.0041   
    5.4254       0.12803E-3     1.0041   
    5.4334       0.12874E-3     1.0041   
    5.4414       0.12946E-3     1.0041   
    5.4494       0.13019E-3     1.0041   
    5.4575       0.13092E-3     1.0041   
    5.4655       0.13166E-3     1.0041   
    5.4735       0.13241E-3     1.0041   
    5.4815       0.13316E-3     1.0041   
    5.4895       0.13392E-3     1.0042   
    5.4975       0.13469E-3     1.0042   
    5.5055       0.13546E-3     1.0042   
    5.5135       0.13624E-3     1.0042   
    5.5215       0.13703E-3     1.0042   
    5.5295       0.13782E-3     1.0042   
    5.5375       0.13863E-3     1.0042   
    5.5455       0.13944E-3     1.0042   
    5.5536       0.14025E-3     1.0042   
    5.5616       0.14108E-3     1.0042   
    5.5696       0.14191E-3     1.0043   
    5.5776       0.14275E-3     1.0043   
    5.5856       0.14360E-3     1.0043   
    5.5936       0.14446E-3     1.0043   
    5.6016       0.14532E-3     1.0043   
    5.6096       0.14619E-3     1.0043   
    5.6176       0.14708E-3     1.0043   
    5.6256       0.14796E-3     1.0043   
    5.6336       0.14886E-3     1.0043   
    5.6416       0.14977E-3     1.0044   
    5.6496       0.15068E-3     1.0044   
    5.6577       0.15161E-3     1.0044   
    5.6657       0.15254E-3     1.0044   
    5.6737       0.15348E-3     1.0044   
    5.6817       0.15444E-3     1.0044   
    5.6897       0.15540E-3     1.0044   
    5.6977       0.15637E-3     1.0044   
    5.7057       0.15735E-3     1.0044   
    5.7137       0.15834E-3     1.0045   
    5.7217       0.15934E-3     1.0045   
    5.7297       0.16035E-3     1.0045   
    5.7377       0.16136E-3     1.0045   
    5.7457       0.16239E-3     1.0045   
    5.7538       0.16343E-3     1.0045   
    5.7618       0.16448E-3     1.0045   
    5.7698       0.16555E-3     1.0045   
    5.7778       0.16662E-3     1.0046   
    5.7858       0.16770E-3     1.0046   
    5.7938       0.16879E-3     1.0046   
    5.8018       0.16990E-3     1.0046   
    5.8098       0.17102E-3     1.0046   
    5.8178       0.17214E-3     1.0046   
    5.8258       0.17328E-3     1.0046   
    5.8338       0.17444E-3     1.0046   
    5.8418       0.17560E-3     1.0047   
    5.8498       0.17678E-3     1.0047   
    5.8579       0.17796E-3     1.0047   
    5.8659       0.17916E-3     1.0047   
    5.8739       0.18038E-3     1.0047   
    5.8819       0.18160E-3     1.0047   
    5.8899       0.18284E-3     1.0047   
    5.8979       0.18410E-3     1.0048   
    5.9059       0.18536E-3     1.0048   
    5.9139       0.18664E-3     1.0048   
    5.9219       0.18794E-3     1.0048   
    5.9299       0.18924E-3     1.0048   
    5.9379       0.19057E-3     1.0048   
    5.9459       0.19190E-3     1.0048   
    5.9540       0.19325E-3     1.0049   
    5.9620       0.19462E-3     1.0049   
    5.9700       0.19600E-3     1.0049   
    5.9780       0.19740E-3     1.0049   
    5.9860       0.19881E-3     1.0049   
    5.9940       0.20024E-3     1.0049   
    6.0020       0.20168E-3     1.0049   
    6.0100       0.20314E-3     1.0050   
    6.0180       0.20462E-3     1.0050   
    6.0260       0.20611E-3     1.0050   
    6.0340       0.20762E-3     1.0050   
    6.0420       0.20915E-3     1.0050   
    6.0501       0.21070E-3     1.0050   
    6.0581       0.21226E-3     1.0051   
    6.0661       0.21384E-3     1.0051   
    6.0741       0.21544E-3     1.0051   
    6.0821       0.21706E-3     1.0051   
    6.0901       0.21869E-3     1.0051   
    6.0981       0.22035E-3     1.0051   
    6.1061       0.22203E-3     1.0052   
    6.1141       0.22372E-3     1.0052   
    6.1221       0.22544E-3     1.0052   
    6.1301       0.22718E-3     1.0052   
    6.1381       0.22893E-3     1.0052   
    6.1461       0.23071E-3     1.0052   
    6.1542       0.23251E-3     1.0053   
    6.1622       0.23433E-3     1.0053   
    6.1702       0.23618E-3     1.0053   
    6.1782       0.23805E-3     1.0053   
    6.1862       0.23994E-3     1.0053   
    6.1942       0.24185E-3     1.0053   
    6.2022       0.24379E-3     1.0054   
    6.2102       0.24575E-3     1.0054   
    6.2182       0.24773E-3     1.0054   
    6.2262       0.24974E-3     1.0054   
    6.2342       0.25178E-3     1.0054   
    6.2422       0.25384E-3     1.0055   
    6.2503       0.25593E-3     1.0055   
    6.2583       0.25804E-3     1.0055   
    6.2663       0.26018E-3     1.0055   
    6.2743       0.26235E-3     1.0055   
    6.2823       0.26455E-3     1.0056   
    6.2903       0.26678E-3     1.0056   
    6.2983       0.26903E-3     1.0056   
    6.3063       0.27132E-3     1.0056   
    6.3143       0.27363E-3     1.0056   
    6.3223       0.27598E-3     1.0057   
    6.3303       0.27835E-3     1.0057   
    6.3383       0.28076E-3     1.0057   
    6.3463       0.28320E-3     1.0057   
    6.3544       0.28568E-3     1.0058   
    6.3624       0.28819E-3     1.0058   
    6.3704       0.29073E-3     1.0058   
    6.3784       0.29330E-3     1.0058   
    6.3864       0.29591E-3     1.0058   
    6.3944       0.29856E-3     1.0059   
    6.4024       0.30125E-3     1.0059   
    6.4104       0.30397E-3     1.0059   
    6.4184       0.30673E-3     1.0059   
    6.4264       0.30953E-3     1.0060   
    6.4344       0.31237E-3     1.0060   
    6.4424       0.31524E-3     1.0060   
    6.4505       0.31816E-3     1.0060   
    6.4585       0.32113E-3     1.0061   
    6.4665       0.32413E-3     1.0061   
    6.4745       0.32718E-3     1.0061   
    6.4825       0.33027E-3     1.0061   
    6.4905       0.33341E-3     1.0062   
    6.4985       0.33659E-3     1.0062   
    6.5065       0.33983E-3     1.0062   
    6.5145       0.34310E-3     1.0062   
    6.5225       0.34643E-3     1.0063   
    6.5305       0.34981E-3     1.0063   
    6.5385       0.35324E-3     1.0063   
    6.5465       0.35672E-3     1.0063   
    6.5546       0.36026E-3     1.0064   
    6.5626       0.36385E-3     1.0064   
    6.5706       0.36749E-3     1.0064   
    6.5786       0.37119E-3     1.0065   
    6.5866       0.37495E-3     1.0065   
    6.5946       0.37877E-3     1.0065   
    6.6026       0.38265E-3     1.0065   
    6.6106       0.38659E-3     1.0066   
    6.6186       0.39059E-3     1.0066   
    6.6266       0.39465E-3     1.0066   
    6.6346       0.39879E-3     1.0067   
    6.6426       0.40299E-3     1.0067   
    6.6507       0.40725E-3     1.0067   
    6.6587       0.41159E-3     1.0068   
    6.6667       0.41600E-3     1.0068   
    6.6747       0.42048E-3     1.0068   
    6.6827       0.42504E-3     1.0069   
    6.6907       0.42967E-3     1.0069   
    6.6987       0.43439E-3     1.0069   
    6.7067       0.43918E-3     1.0070   
    6.7147       0.44405E-3     1.0070   
    6.7227       0.44901E-3     1.0070   
    6.7307       0.45406E-3     1.0071   
    6.7387       0.45919E-3     1.0071   
    6.7467       0.46441E-3     1.0071   
    6.7548       0.46973E-3     1.0072   
    6.7628       0.47513E-3     1.0072   
    6.7708       0.48064E-3     1.0072   
    6.7788       0.48624E-3     1.0073   
    6.7868       0.49195E-3     1.0073   
    6.7948       0.49776E-3     1.0074   
    6.8028       0.50368E-3     1.0074   
    6.8108       0.50970E-3     1.0074   
    6.8188       0.51584E-3     1.0075   
    6.8268       0.52209E-3     1.0075   
    6.8348       0.52846E-3     1.0076   
    6.8428       0.53495E-3     1.0076   
    6.8509       0.54157E-3     1.0076   
    6.8589       0.54831E-3     1.0077   
    6.8669       0.55518E-3     1.0077   
    6.8749       0.56219E-3     1.0078   
    6.8829       0.56933E-3     1.0078   
    6.8909       0.57662E-3     1.0079   
    6.8989       0.58405E-3     1.0079   
    6.9069       0.59163E-3     1.0080   
    6.9149       0.59936E-3     1.0080   
    6.9229       0.60725E-3     1.0080   
    6.9309       0.61531E-3     1.0081   
    6.9389       0.62353E-3     1.0081   
    6.9469       0.63192E-3     1.0082   
    6.9550       0.64048E-3     1.0082   
    6.9630       0.64923E-3     1.0083   
    6.9710       0.65816E-3     1.0083   
    6.9790       0.66729E-3     1.0084   
    6.9870       0.67661E-3     1.0084   
    6.9950       0.68614E-3     1.0085   
    7.0030       0.69588E-3     1.0086   
    7.0110       0.70583E-3     1.0086   
    7.0190       0.71601E-3     1.0087   
    7.0270       0.72641E-3     1.0087   
    7.0350       0.73706E-3     1.0088   
    7.0430       0.74794E-3     1.0088   
    7.0511       0.75908E-3     1.0089   
    7.0591       0.77048E-3     1.0090   
    7.0671       0.78215E-3     1.0090   
    7.0751       0.79409E-3     1.0091   
    7.0831       0.80633E-3     1.0091   
    7.0911       0.81885E-3     1.0092   
    7.0991       0.83169E-3     1.0093   
    7.1071       0.84484E-3     1.0093   
    7.1151       0.85831E-3     1.0094   
    7.1231       0.87213E-3     1.0095   
    7.1311       0.88630E-3     1.0095   
    7.1391       0.90083E-3     1.0096   
    7.1471       0.91573E-3     1.0097   
    7.1552       0.93103E-3     1.0097   
    7.1632       0.94672E-3     1.0098   
    7.1712       0.96284E-3     1.0099   
    7.1792       0.97939E-3     1.0100   
    7.1872       0.99639E-3     1.0100   
    7.1952       0.10139E-2     1.0101   
    7.2032       0.10318E-2     1.0102   
    7.2112       0.10503E-2     1.0103   
    7.2192       0.10693E-2     1.0104   
    7.2272       0.10888E-2     1.0104   
    7.2352       0.11089E-2     1.0105   
    7.2432       0.11296E-2     1.0106   
    7.2513       0.11509E-2     1.0107   
    7.2593       0.11728E-2     1.0108   
    7.2673       0.11954E-2     1.0109   
    7.2753       0.12188E-2     1.0110   
    7.2833       0.12428E-2     1.0111   
    7.2913       0.12676E-2     1.0112   
    7.2993       0.12932E-2     1.0113   
    7.3073       0.13196E-2     1.0114   
    7.3153       0.13469E-2     1.0115   
    7.3233       0.13751E-2     1.0116   
    7.3313       0.14043E-2     1.0117   
    7.3393       0.14344E-2     1.0118   
    7.3473       0.14656E-2     1.0119   
    7.3554       0.14979E-2     1.0120   
    7.3634       0.15313E-2     1.0121   
    7.3714       0.15660E-2     1.0122   
    7.3794       0.16019E-2     1.0124   
    7.3874       0.16392E-2     1.0125   
    7.3954       0.16779E-2     1.0126   
    7.4034       0.17180E-2     1.0127   
    7.4114       0.17598E-2     1.0129   
    7.4194       0.18032E-2     1.0130   
    7.4274       0.18483E-2     1.0131   
    7.4354       0.18953E-2     1.0133   
    7.4434       0.19443E-2     1.0134   
    7.4515       0.19954E-2     1.0136   
    7.4595       0.20486E-2     1.0137   
    7.4675       0.21042E-2     1.0139   
    7.4755       0.21623E-2     1.0140   
    7.4835       0.22231E-2     1.0142   
    7.4915       0.22866E-2     1.0144   
    7.4995       0.23532E-2     1.0145   
    7.5075       0.24230E-2     1.0147   
    7.5155       0.24963E-2     1.0149   
    7.5235       0.25733E-2     1.0151   
    7.5315       0.26542E-2     1.0153   
    7.5395       0.27393E-2     1.0155   
    7.5475       0.28291E-2     1.0157   
    7.5556       0.29237E-2     1.0159   
    7.5636       0.30237E-2     1.0161   
    7.5716       0.31294E-2     1.0163   
    7.5796       0.32413E-2     1.0165   
    7.5876       0.33599E-2     1.0168   
    7.5956       0.34858E-2     1.0170   
    7.6036       0.36197E-2     1.0172   
    7.6116       0.37621E-2     1.0175   
    7.6196       0.39140E-2     1.0178   
    7.6276       0.40761E-2     1.0180   
    7.6356       0.42495E-2     1.0183   
    7.6436       0.44352E-2     1.0186   
    7.6517       0.46344E-2     1.0189   
    7.6597       0.48485E-2     1.0192   
    7.6677       0.50789E-2     1.0195   
    7.6757       0.53274E-2     1.0198   
    7.6837       0.55958E-2     1.0201   
    7.6917       0.58861E-2     1.0204   
    7.6997       0.62006E-2     1.0208   
    7.7077       0.65420E-2     1.0211   
    7.7157       0.69129E-2     1.0214   
    7.7237       0.73165E-2     1.0218   
      7.73173       0.00776       1.02213
      7.73974       0.00823       1.02247
      7.74775       0.00876       1.02280
      7.75576       0.00932       1.02312
      7.76376       0.00994       1.02342
     7.771772      0.010614      1.023698
     7.779780      0.011340      1.023934
     7.787788      0.012121      1.024122
     7.795796      0.012955      1.024247
     7.803804      0.013837      1.024294
     7.811812      0.014758      1.024248
     7.819820      0.015704      1.024091
     7.827828      0.016653      1.023811
     7.835836      0.017578      1.023395
     7.843844      0.018447      1.022842
     7.851852      0.019224      1.022157
     7.859860      0.019871      1.021359
     7.867868      0.020358      1.020480
     7.875876      0.020663      1.019558
     7.883884      0.020777      1.018643
     7.891892      0.020707      1.017782
     7.899900      0.020474      1.017018
     7.907908      0.020109      1.016383
     7.915916      0.019650      1.015900
     7.923924      0.019134      1.015578
     7.931932      0.018599      1.015415
     7.939940      0.018073      1.015403
     7.947948      0.017581      1.015529
     7.955956      0.017142      1.015776
     7.963964      0.016767      1.016129
     7.971972      0.016465      1.016572
     7.979980      0.016242      1.017093
     7.987988      0.016101      1.017680
     7.995996      0.016042      1.018321
     8.004004      0.016068      1.019011
     8.012012      0.016178      1.019741
     8.020020      0.016373      1.020506
     8.028028      0.016656      1.021303
     8.036036      0.017027      1.022127
     8.044044      0.017489      1.022976
     8.052052      0.018046      1.023847
     8.060060      0.018704      1.024736
     8.068068      0.019466      1.025641
     8.076076      0.020341      1.026558
     8.084084      0.021337      1.027483
     8.092092      0.022463      1.028409
     8.100100      0.023731      1.029331
     8.108108      0.025152      1.030239
     8.116116      0.026740      1.031121
     8.124124      0.028510      1.031962
     8.132132      0.030477      1.032742
     8.140140      0.032658      1.033439
     8.148148      0.035067      1.034020
     8.156156      0.037718      1.034450
     8.164164      0.040621      1.034682
     8.172172      0.043779      1.034660
     8.180180      0.047187      1.034322
     8.188188      0.050824      1.033593
     8.196196      0.054652      1.032394
     8.204204      0.058608      1.030643
     8.212212      0.062600      1.028261
     8.220220      0.066504      1.025188
     8.228228      0.070168      1.021390
     8.236236      0.073414      1.016876
     8.244244      0.076059      1.011710
     8.252252      0.077932      1.006016
     8.260260      0.078898      0.999975
     8.268268      0.078884      0.993808
     8.276276      0.077886      0.987751
     8.284284      0.075977      0.982027
     8.292292      0.073287      0.976819
     8.300300      0.069986      0.972254
     8.308308      0.066258      0.968398
     8.316316      0.062279      0.965263
     8.324324      0.058203      0.962818
     8.332332      0.054156      0.961001
     8.340340      0.050231      0.959735
     8.348348      0.046489      0.958938
     8.356356      0.042973      0.958531
     8.364364      0.039700      0.958438
     8.372372      0.036677      0.958597
     8.380380      0.033901      0.958950
     8.388388      0.031361      0.959452
     8.396396      0.029043      0.960065
     8.404404      0.026931      0.960758
     8.412412      0.025008      0.961507
     8.420420      0.023258      0.962293
     8.428428      0.021664      0.963099
     8.436436      0.020212      0.963915
     8.444444      0.018888      0.964731
     8.452452      0.017679      0.965541
     8.460460      0.016573      0.966340
     8.468468      0.015561      0.967123
     8.476476      0.014633      0.967888
     8.484484      0.013781      0.968633
     8.492492      0.012997      0.969357
     8.500501      0.012275      0.970060
     8.508509      0.011609      0.970740
     8.516517      0.010994      0.971398
     8.524525      0.010424      0.972035
      8.53253       0.00990       0.97265
      8.54054       0.00941       0.97324
      8.54855       0.00895       0.97382
    8.5566       0.85254E-2    0.97437   
    8.5646       0.81298E-2    0.97490   
    8.5726       0.77604E-2    0.97542   
    8.5806       0.74151E-2    0.97592   
    8.5886       0.70919E-2    0.97640   
    8.5966       0.67890E-2    0.97686   
    8.6046       0.65048E-2    0.97731   
    8.6126       0.62377E-2    0.97774   
    8.6206       0.59866E-2    0.97816   
    8.6286       0.57501E-2    0.97856   
    8.6366       0.55271E-2    0.97896   
    8.6446       0.53168E-2    0.97933   
    8.6527       0.51181E-2    0.97970   
    8.6607       0.49302E-2    0.98005   
    8.6687       0.47524E-2    0.98040   
    8.6767       0.45840E-2    0.98073   
    8.6847       0.44243E-2    0.98105   
    8.6927       0.42728E-2    0.98137   
    8.7007       0.41288E-2    0.98167   
    8.7087       0.39920E-2    0.98196   
    8.7167       0.38619E-2    0.98225   
    8.7247       0.37379E-2    0.98252   
    8.7327       0.36199E-2    0.98279   
    8.7407       0.35073E-2    0.98305   
    8.7487       0.33998E-2    0.98331   
    8.7568       0.32973E-2    0.98356   
    8.7648       0.31993E-2    0.98380   
    8.7728       0.31056E-2    0.98403   
    8.7808       0.30159E-2    0.98426   
    8.7888       0.29301E-2    0.98448   
    8.7968       0.28479E-2    0.98469   
    8.8048       0.27690E-2    0.98490   
    8.8128       0.26935E-2    0.98511   
    8.8208       0.26209E-2    0.98531   
    8.8288       0.25513E-2    0.98550   
    8.8368       0.24844E-2    0.98569   
    8.8448       0.24201E-2    0.98588   
    8.8529       0.23583E-2    0.98606   
    8.8609       0.22988E-2    0.98623   
    8.8689       0.22416E-2    0.98640   
    8.8769       0.21864E-2    0.98657   
    8.8849       0.21333E-2    0.98674   
    8.8929       0.20821E-2    0.98690   
    8.9009       0.20327E-2    0.98705   
    8.9089       0.19851E-2    0.98721   
    8.9169       0.19391E-2    0.98736   
    8.9249       0.18947E-2    0.98750   
    8.9329       0.18519E-2    0.98765   
    8.9409       0.18104E-2    0.98779   
    8.9489       0.17704E-2    0.98792   
    8.9570       0.17316E-2    0.98806   
    8.9650       0.16942E-2    0.98819   
    8.9730       0.16579E-2    0.98832   
    8.9810       0.16228E-2    0.98844   
    8.9890       0.15888E-2    0.98857   
    8.9970       0.15559E-2    0.98869   
    9.0050       0.15240E-2    0.98881   
    9.0130       0.14930E-2    0.98892   
    9.0210       0.14630E-2    0.98904   
    9.0290       0.14339E-2    0.98915   
    9.0370       0.14057E-2    0.98926   
    9.0450       0.13783E-2    0.98936   
    9.0531       0.13516E-2    0.98947   
    9.0611       0.13258E-2    0.98957   
    9.0691       0.13007E-2    0.98968   
    9.0771       0.12763E-2    0.98977   
    9.0851       0.12526E-2    0.98987   
    9.0931       0.12295E-2    0.98997   
    9.1011       0.12071E-2    0.99006   
    9.1091       0.11853E-2    0.99016   
    9.1171       0.11641E-2    0.99025   
    9.1251       0.11434E-2    0.99034   
    9.1331       0.11233E-2    0.99042   
    9.1411       0.11038E-2    0.99051   
    9.1491       0.10847E-2    0.99060   
    9.1572       0.10661E-2    0.99068   
    9.1652       0.10480E-2    0.99076   
    9.1732       0.10304E-2    0.99084   
    9.1812       0.10132E-2    0.99092   
    9.1892       0.99643E-3    0.99100   
    9.1972       0.98008E-3    0.99108   
    9.2052       0.96414E-3    0.99115   
    9.2132       0.94858E-3    0.99123   
    9.2212       0.93340E-3    0.99130   
    9.2292       0.91858E-3    0.99137   
    9.2372       0.90411E-3    0.99144   
    9.2452       0.88999E-3    0.99151   
    9.2533       0.87620E-3    0.99158   
    9.2613       0.86272E-3    0.99165   
    9.2693       0.84956E-3    0.99172   
    9.2773       0.83670E-3    0.99178   
    9.2853       0.82413E-3    0.99185   
    9.2933       0.81184E-3    0.99191   
    9.3013       0.79983E-3    0.99197   
    9.3093       0.78808E-3    0.99204   
    9.3173       0.77660E-3    0.99210   
    9.3253       0.76536E-3    0.99216   
    9.3333       0.75437E-3    0.99222   
    9.3413       0.74361E-3    0.99228   
    9.3493       0.73309E-3    0.99233   
    9.3574       0.72279E-3    0.99239   
    9.3654       0.71270E-3    0.99245   
    9.3734       0.70283E-3    0.99250   
    9.3814       0.69316E-3    0.99256   
    9.3894       0.68369E-3    0.99261   
    9.3974       0.67441E-3    0.99266   
    9.4054       0.66533E-3    0.99272   
    9.4134       0.65643E-3    0.99277   
    9.4214       0.64770E-3    0.99282   
    9.4294       0.63915E-3    0.99287   
    9.4374       0.63077E-3    0.99292   
    9.4454       0.62256E-3    0.99297   
    9.4535       0.61450E-3    0.99302   
    9.4615       0.60661E-3    0.99306   
    9.4695       0.59886E-3    0.99311   
    9.4775       0.59126E-3    0.99316   
    9.4855       0.58381E-3    0.99320   
    9.4935       0.57650E-3    0.99325   
    9.5015       0.56933E-3    0.99329   
    9.5095       0.56229E-3    0.99334   
    9.5175       0.55538E-3    0.99338   
    9.5255       0.54860E-3    0.99342   
    9.5335       0.54194E-3    0.99347   
    9.5415       0.53541E-3    0.99351   
    9.5495       0.52899E-3    0.99355   
    9.5576       0.52269E-3    0.99359   
    9.5656       0.51650E-3    0.99363   
    9.5736       0.51042E-3    0.99367   
    9.5816       0.50445E-3    0.99371   
    9.5896       0.49859E-3    0.99375   
    9.5976       0.49282E-3    0.99379   
    9.6056       0.48716E-3    0.99383   
    9.6136       0.48160E-3    0.99387   
    9.6216       0.47613E-3    0.99390   
    9.6296       0.47075E-3    0.99394   
    9.6376       0.46546E-3    0.99398   
    9.6456       0.46027E-3    0.99401   
    9.6537       0.45516E-3    0.99405   
    9.6617       0.45014E-3    0.99409   
    9.6697       0.44520E-3    0.99412   
    9.6777       0.44034E-3    0.99416   
    9.6857       0.43556E-3    0.99419   
    9.6937       0.43086E-3    0.99422   
    9.7017       0.42624E-3    0.99426   
    9.7097       0.42169E-3    0.99429   
    9.7177       0.41721E-3    0.99432   
    9.7257       0.41281E-3    0.99436   
    9.7337       0.40847E-3    0.99439   
    9.7417       0.40421E-3    0.99442   
    9.7497       0.40001E-3    0.99445   
    9.7578       0.39588E-3    0.99448   
    9.7658       0.39181E-3    0.99451   
    9.7738       0.38780E-3    0.99454   
    9.7818       0.38386E-3    0.99457   
    9.7898       0.37997E-3    0.99460   
    9.7978       0.37615E-3    0.99463   
    9.8058       0.37238E-3    0.99466   
    9.8138       0.36867E-3    0.99469   
    9.8218       0.36502E-3    0.99472   
    9.8298       0.36142E-3    0.99475   
    9.8378       0.35787E-3    0.99478   
    9.8458       0.35438E-3    0.99480   
    9.8539       0.35093E-3    0.99483   
    9.8619       0.34754E-3    0.99486   
    9.8699       0.34420E-3    0.99489   
    9.8779       0.34091E-3    0.99491   
    9.8859       0.33766E-3    0.99494   
    9.8939       0.33446E-3    0.99497   
    9.9019       0.33130E-3    0.99499   
    9.9099       0.32819E-3    0.99502   
    9.9179       0.32513E-3    0.99504   
    9.9259       0.32211E-3    0.99507   
    9.9339       0.31913E-3    0.99509   
    9.9419       0.31619E-3    0.99512   
    9.9499       0.31329E-3    0.99514   
    9.9580       0.31043E-3    0.99517   
    9.9660       0.30762E-3    0.99519   
    9.9740       0.30484E-3    0.99521   
    9.9820       0.30209E-3    0.99524   
    9.9900       0.29939E-3    0.99526   
    9.9980       0.29672E-3    0.99529   
    10.006       0.29409E-3    0.99531   
    10.014       0.29149E-3    0.99533   
    10.022       0.28893E-3    0.99535   
    10.030       0.28640E-3    0.99538   
    10.038       0.28391E-3    0.99540   
    10.046       0.28144E-3    0.99542   
    10.054       0.27902E-3    0.99544   
    10.062       0.27662E-3    0.99546   
    10.070       0.27425E-3    0.99549   
    10.078       0.27191E-3    0.99551   
    10.086       0.26961E-3    0.99553   
    10.094       0.26733E-3    0.99555   
    10.102       0.26508E-3    0.99557   
    10.110       0.26286E-3    0.99559   
    10.118       0.26067E-3    0.99561   
    10.126       0.25851E-3    0.99563   
    10.134       0.25637E-3    0.99565   
    10.142       0.25426E-3    0.99567   
    10.150       0.25218E-3    0.99569   
    10.158       0.25012E-3    0.99571   
    10.166       0.24809E-3    0.99573   
    10.174       0.24608E-3    0.99575   
    10.182       0.24410E-3    0.99577   
    10.190       0.24214E-3    0.99579   
    10.198       0.24020E-3    0.99581   
    10.206       0.23829E-3    0.99582   
    10.214       0.23640E-3    0.99584   
    10.222       0.23454E-3    0.99586   
    10.230       0.23269E-3    0.99588   
    10.238       0.23087E-3    0.99590   
    10.246       0.22907E-3    0.99591   
    10.254       0.22729E-3    0.99593   
    10.262       0.22553E-3    0.99595   
    10.270       0.22379E-3    0.99597   
    10.278       0.22208E-3    0.99598   
    10.286       0.22038E-3    0.99600   
    10.294       0.21870E-3    0.99602   
    10.302       0.21704E-3    0.99604   
    10.310       0.21540E-3    0.99605   
    10.318       0.21378E-3    0.99607   
    10.326       0.21218E-3    0.99609   
    10.334       0.21059E-3    0.99610   
    10.342       0.20903E-3    0.99612   
    10.350       0.20748E-3    0.99614   
    10.358       0.20595E-3    0.99615   
    10.366       0.20443E-3    0.99617   
    10.374       0.20294E-3    0.99618   
    10.382       0.20146E-3    0.99620   
    10.390       0.19999E-3    0.99621   
    10.398       0.19854E-3    0.99623   
    10.406       0.19711E-3    0.99624   
    10.414       0.19569E-3    0.99626   
    10.422       0.19429E-3    0.99628   
    10.430       0.19291E-3    0.99629   
    10.438       0.19153E-3    0.99631   
    10.446       0.19018E-3    0.99632   
    10.454       0.18884E-3    0.99633   
    10.462       0.18751E-3    0.99635   
    10.470       0.18619E-3    0.99636   
    10.478       0.18490E-3    0.99638   
    10.486       0.18361E-3    0.99639   
    10.494       0.18234E-3    0.99641   
    10.503       0.18108E-3    0.99642   
    10.511       0.17983E-3    0.99643   
    10.519       0.17860E-3    0.99645   
    10.527       0.17738E-3    0.99646   
    10.535       0.17617E-3    0.99648   
    10.543       0.17498E-3    0.99649   
    10.551       0.17379E-3    0.99650   
    10.559       0.17262E-3    0.99652   
    10.567       0.17147E-3    0.99653   
    10.575       0.17032E-3    0.99654   
    10.583       0.16918E-3    0.99656   
    10.591       0.16806E-3    0.99657   
    10.599       0.16695E-3    0.99658   
    10.607       0.16585E-3    0.99659   
    10.615       0.16476E-3    0.99661   
    10.623       0.16368E-3    0.99662   
    10.631       0.16261E-3    0.99663   
    10.639       0.16155E-3    0.99665   
    10.647       0.16050E-3    0.99666   
    10.655       0.15947E-3    0.99667   
    10.663       0.15844E-3    0.99668   
    10.671       0.15742E-3    0.99669   
    10.679       0.15641E-3    0.99671   
    10.687       0.15542E-3    0.99672   
    10.695       0.15443E-3    0.99673   
    10.703       0.15345E-3    0.99674   
    10.711       0.15248E-3    0.99675   
    10.719       0.15152E-3    0.99677   
    10.727       0.15057E-3    0.99678   
    10.735       0.14963E-3    0.99679   
    10.743       0.14870E-3    0.99680   
    10.751       0.14777E-3    0.99681   
    10.759       0.14686E-3    0.99682   
    10.767       0.14595E-3    0.99683   
    10.775       0.14506E-3    0.99685   
    10.783       0.14417E-3    0.99686   
    10.791       0.14328E-3    0.99687   
    10.799       0.14241E-3    0.99688   
    10.807       0.14155E-3    0.99689   
    10.815       0.14069E-3    0.99690   
    10.823       0.13984E-3    0.99691   
    10.831       0.13900E-3    0.99692   
    10.839       0.13817E-3    0.99693   
    10.847       0.13734E-3    0.99694   
    10.855       0.13652E-3    0.99695   
    10.863       0.13571E-3    0.99696   
    10.871       0.13491E-3    0.99697   
    10.879       0.13411E-3    0.99699   
    10.887       0.13332E-3    0.99700   
    10.895       0.13254E-3    0.99701   
    10.903       0.13176E-3    0.99702   
    10.911       0.13099E-3    0.99703   
    10.919       0.13023E-3    0.99704   
    10.927       0.12948E-3    0.99705   
    10.935       0.12873E-3    0.99706   
    10.943       0.12799E-3    0.99707   
    10.951       0.12725E-3    0.99708   
    10.959       0.12652E-3    0.99709   
    10.967       0.12580E-3    0.99709   
    10.975       0.12509E-3    0.99710   
    10.983       0.12438E-3    0.99711   
    10.991       0.12367E-3    0.99712   
    10.999       0.12297E-3    0.99713   
    11.007       0.12228E-3    0.99714   
    11.015       0.12160E-3    0.99715   
    11.023       0.12092E-3    0.99716   
    11.031       0.12024E-3    0.99717   
    11.039       0.11957E-3    0.99718   
    11.047       0.11891E-3    0.99719   
    11.055       0.11825E-3    0.99720   
    11.063       0.11760E-3    0.99721   
    11.071       0.11696E-3    0.99722   
    11.079       0.11631E-3    0.99722   
    11.087       0.11568E-3    0.99723   
    11.095       0.11505E-3    0.99724   
    11.103       0.11442E-3    0.99725   
    11.111       0.11380E-3    0.99726   
    11.119       0.11319E-3    0.99727   
    11.127       0.11258E-3    0.99728   
    11.135       0.11197E-3    0.99729   
    11.143       0.11138E-3    0.99729   
    11.151       0.11078E-3    0.99730   
    11.159       0.11019E-3    0.99731   
    11.167       0.10961E-3    0.99732   
    11.175       0.10902E-3    0.99733   
    11.183       0.10845E-3    0.99734   
    11.191       0.10788E-3    0.99734   
    11.199       0.10731E-3    0.99735   
    11.207       0.10675E-3    0.99736   
    11.215       0.10619E-3    0.99737   
    11.223       0.10564E-3    0.99738   
    11.231       0.10509E-3    0.99738   
    11.239       0.10454E-3    0.99739   
    11.247       0.10400E-3    0.99740   
    11.255       0.10347E-3    0.99741   
    11.263       0.10294E-3    0.99742   
    11.271       0.10241E-3    0.99742   
    11.279       0.10189E-3    0.99743   
    11.287       0.10137E-3    0.99744   
    11.295       0.10085E-3    0.99745   
    11.303       0.10034E-3    0.99745   
    11.311       0.99833E-4    0.99746   
    11.319       0.99330E-4    0.99747   
    11.327       0.98830E-4    0.99748   
    11.335       0.98334E-4    0.99749   
    11.343       0.97843E-4    0.99749   
    11.351       0.97354E-4    0.99750   
    11.359       0.96870E-4    0.99751   
    11.367       0.96389E-4    0.99751   
    11.375       0.95912E-4    0.99752   
    11.383       0.95438E-4    0.99753   
    11.391       0.94968E-4    0.99754   
    11.399       0.94502E-4    0.99754   
    11.407       0.94039E-4    0.99755   
    11.415       0.93580E-4    0.99756   
    11.423       0.93124E-4    0.99756   
    11.431       0.92671E-4    0.99757   
    11.439       0.92222E-4    0.99758   
    11.447       0.91776E-4    0.99759   
    11.455       0.91333E-4    0.99759   
    11.463       0.90893E-4    0.99760   
    11.471       0.90457E-4    0.99761   
    11.479       0.90024E-4    0.99761   
    11.487       0.89594E-4    0.99762   
    11.495       0.89168E-4    0.99763   
    11.504       0.88744E-4    0.99763   
    11.512       0.88323E-4    0.99764   
    11.520       0.87906E-4    0.99765   
    11.528       0.87491E-4    0.99765   
    11.536       0.87080E-4    0.99766   
    11.544       0.86671E-4    0.99767   
    11.552       0.86266E-4    0.99767   
    11.560       0.85863E-4    0.99768   
    11.568       0.85463E-4    0.99769   
    11.576       0.85066E-4    0.99769   
    11.584       0.84672E-4    0.99770   
    11.592       0.84281E-4    0.99771   
    11.600       0.83892E-4    0.99771   
    11.608       0.83506E-4    0.99772   
    11.616       0.83123E-4    0.99772   
    11.624       0.82742E-4    0.99773   
    11.632       0.82364E-4    0.99774   
    11.640       0.81989E-4    0.99774   
    11.648       0.81617E-4    0.99775   
    11.656       0.81247E-4    0.99776   
    11.664       0.80879E-4    0.99776   
    11.672       0.80514E-4    0.99777   
    11.680       0.80152E-4    0.99777   
    11.688       0.79792E-4    0.99778   
    11.696       0.79435E-4    0.99779   
    11.704       0.79080E-4    0.99779   
    11.712       0.78727E-4    0.99780   
    11.720       0.78377E-4    0.99780   
    11.728       0.78029E-4    0.99781   
    11.736       0.77684E-4    0.99782   
    11.744       0.77341E-4    0.99782   
    11.752       0.77000E-4    0.99783   
    11.760       0.76662E-4    0.99783   
    11.768       0.76325E-4    0.99784   
    11.776       0.75992E-4    0.99784   
    11.784       0.75660E-4    0.99785   
    11.792       0.75330E-4    0.99786   
    11.800       0.75003E-4    0.99786   
    11.808       0.74678E-4    0.99787   
    11.816       0.74355E-4    0.99787   
    11.824       0.74034E-4    0.99788   
    11.832       0.73716E-4    0.99788   
    11.840       0.73399E-4    0.99789   
    11.848       0.73084E-4    0.99789   
    11.856       0.72772E-4    0.99790   
    11.864       0.72462E-4    0.99791   
    11.872       0.72153E-4    0.99791   
    11.880       0.71847E-4    0.99792   
    11.888       0.71543E-4    0.99792   
    11.896       0.71240E-4    0.99793   
    11.904       0.70940E-4    0.99793   
    11.912       0.70641E-4    0.99794   
    11.920       0.70345E-4    0.99794   
    11.928       0.70050E-4    0.99795   
    11.936       0.69757E-4    0.99795   
    11.944       0.69466E-4    0.99796   
    11.952       0.69177E-4    0.99796   
    11.960       0.68890E-4    0.99797   
    11.968       0.68605E-4    0.99797   
    11.976       0.68321E-4    0.99798   
    11.984       0.68039E-4    0.99798   
    11.992       0.67759E-4    0.99799   
    12.000       0.67481E-4    0.99799   
# 
# 09/11/2019 at 10:48 YAMBO @ Alejandro-4.local [start]
# 09/11/2019 at 10:48                           [end]
#
# .-Input file : inputs/01-ip-reference
# | optics                         # [R OPT] Optics
# | chi                            # [R CHI] Dyson equation for Chi.
# | BoseTemp= 0.000000     eV      # Bosonic Temperature
# | FFTGvecs=  515         RL      # [FFT] Plane-waves
# | Chimod= "IP"                   # [X] IP/Hartree/ALDA/LRC/PF/BSfxc
# | % QpntsRXd
# |  1 | 1 |                       # [Xd] Transferred momenta
# | %
# | % BndsRnXd
# |   2 |  8 |                     # [Xd] Polarization function bands
# | %
# | % EnRngeXd
# |   4.00000 | 12.00000 | eV      # [Xd] Energy range
# | %
# | % DmRngeXd
# |   0.10000 |  0.10000 | eV      # [Xd] Damping range
# | %
# | ETStpsXd= 1000                 # [Xd] Total Energy steps
# | % LongDrXd
# | 0.1000E-4 | 0.000    | 0.000    |        # [Xd] [cc] Electric Field
# | %
